# Wavenumber Transmittence
1618.00 0.589860
1663.00 0.778260
1703.00 0.873360
1713.00 0.885600
1643.00 0.252280
1608.00 0.660640
1603.00 0.714200
1623.00 0.372080
1683.00 0.845840
1598.00 0.793320
1638.00 0.038180
1613.00 0.634280
1688.00 0.847560
1653.00 0.709540
1698.00 0.847680
1633.00 0.014460
1628.00 0.141000
1673.00 0.824660
1693.00 0.839140
1648.00 0.442200
1678.00 0.837220
1658.00 0.750560
1668.00 0.808000
1708.00 0.882440
