# Wavenumber Transmittence
698.00 0.837460
728.00 0.314140
708.00 0.682300
743.00 0.669540
693.00 0.856040
763.00 0.679900
778.00 0.796080
733.00 0.492340
768.00 0.742980
748.00 0.661460
683.00 0.867400
758.00 0.619080
738.00 0.642620
688.00 0.866820
753.00 0.607920
723.00 0.167980
678.00 0.856640
773.00 0.789160
713.00 0.475280
718.00 0.282020
703.00 0.795620
