# Wavenumber	Transmittence
2048.00	0.912360
2098.00	0.927620
2138.00	0.921660
2053.00	0.915580
2088.00	0.925120
2113.00	0.927600
2118.00	0.927280
2063.00	0.921600
2073.00	0.922780
2123.00	0.926480
2128.00	0.925460
2093.00	0.927340
2078.00	0.922700
2058.00	0.919000
2068.00	0.922760
2043.00	0.909340
2108.00	0.927700
2133.00	0.923900
2103.00	0.927700
2083.00	0.922820
