# Wavenumber,Transmittence
1573.00,0.835000
1523.00,0.746160
1558.00,0.790680
1543.00,0.751360
1568.00,0.829900
1513.00,0.723260
1528.00,0.743420
1538.00,0.743080
1503.00,0.690140
1593.00,0.815120
1548.00,0.762360
1553.00,0.772280
1598.00,0.793320
1563.00,0.814220
1578.00,0.835840
1518.00,0.732660
1508.00,0.708780
1533.00,0.739980
1583.00,0.833940
1588.00,0.828740
