# Wavenumber Transmittence
918.00 0.099720
858.00 0.629780
868.00 0.530020
913.00 0.008100
883.00 0.189000
848.00 0.647340
948.00 0.519780
898.00 0.006620
893.00 0.028740
908.00 0.000000
928.00 0.292200
878.00 0.233460
943.00 0.503620
873.00 0.375400
903.00 0.000000
933.00 0.378700
923.00 0.205800
938.00 0.454160
853.00 0.638460
888.00 0.096820
863.00 0.605760
