# Wavenumber	Transmittence
3383.00	0.925020
3358.00	0.921920
3338.00	0.919920
3353.00	0.921340
3368.00	0.923000
3303.00	0.924900
3313.00	0.923400
3343.00	0.920200
3348.00	0.920800
3333.00	0.920120
3278.00	0.921440
3373.00	0.923500
3328.00	0.920380
3283.00	0.923060
3298.00	0.924920
3393.00	0.926660
3323.00	0.920920
3308.00	0.924260
3288.00	0.924060
3273.00	0.918280
3388.00	0.925860
3378.00	0.924160
3363.00	0.922500
3293.00	0.924660
3398.00	0.926720
3403.00	0.926380
3318.00	0.922180
