# Wavenumber	Transmittence
2223.00	0.913020
2263.00	0.893440
2273.00	0.893020
2233.00	0.912420
2228.00	0.913360
2198.00	0.912300
2258.00	0.895420
2283.00	0.894180
2238.00	0.909660
2248.00	0.903160
2203.00	0.911800
2288.00	0.895020
2188.00	0.911020
2278.00	0.893420
2183.00	0.909940
2193.00	0.911920
2243.00	0.906420
2208.00	0.911700
2213.00	0.911820
2253.00	0.899620
2218.00	0.912360
2268.00	0.892720
