# Wavenumber Transmittence
592.81 0.992400
555.31 0.974400
602.19 0.994800
606.88 0.995400
517.81 0.969000
531.88 0.969000
597.50 0.994000
536.56 0.970000
541.25 0.970000
545.94 0.970000
550.63 0.972000
527.19 0.969000
560.00 0.978000
569.38 0.983200
588.13 0.991400
578.75 0.988200
522.50 0.969000
564.69 0.981200
611.56 0.997200
574.06 0.985600
583.44 0.988800
508.44 0.970000
513.13 0.969400
