# Wavenumber,Transmittence
3081.88,0.994580
3063.13,0.985880
3016.25,0.571840
3039.69,0.901400
3030.31,0.787900
3011.56,0.484880
3020.94,0.633360
3006.88,0.410360
3025.63,0.724220
2997.50,0.315940
3049.06,0.960120
3067.81,0.988880
2992.81,0.270540
3072.50,0.991060
3035.00,0.841600
3058.44,0.982220
3044.38,0.937260
3077.19,0.992760
3002.19,0.353180
3053.75,0.973600
