# Wavenumber,Transmittence
3726.00,0.872360
3661.00,0.873620
3686.00,0.871200
3671.00,0.872420
3721.00,0.872440
3651.00,0.874120
3736.00,0.872160
3716.00,0.872560
3751.00,0.871840
3746.00,0.871960
3731.00,0.872240
3741.00,0.872040
3701.00,0.872420
3706.00,0.872680
3756.00,0.871720
3711.00,0.872680
3696.00,0.872020
3666.00,0.873180
3766.00,0.872700
3676.00,0.871720
3656.00,0.873880
3681.00,0.871220
3691.00,0.871360
3761.00,0.872080
