# Wavenumber	Transmittence
3591.00	0.876240
3536.00	0.877600
3541.00	0.877600
3521.00	0.877600
3576.00	0.876760
3561.00	0.877220
3501.00	0.877380
3526.00	0.877600
3531.00	0.877600
3581.00	0.876580
3556.00	0.877380
3546.00	0.877600
3566.00	0.877060
3516.00	0.877520
3571.00	0.876880
3496.00	0.877300
3506.00	0.877040
3551.00	0.877540
3596.00	0.876080
3511.00	0.877500
3586.00	0.876420
