# Wavenumber	Transmittence
561.00	0.870720
576.00	0.874900
491.00	0.867160
476.00	0.838200
556.00	0.868880
586.00	0.875980
486.00	0.856180
521.00	0.861760
571.00	0.873820
591.00	0.876140
531.00	0.860500
461.00	0.788240
596.00	0.876260
516.00	0.866700
496.00	0.871440
551.00	0.867080
481.00	0.845540
581.00	0.875540
526.00	0.859220
466.00	0.782880
471.00	0.819700
536.00	0.862060
546.00	0.865380
456.00	0.795540
566.00	0.872500
511.00	0.869920
501.00	0.872600
506.00	0.872020
541.00	0.863700
