# Wavenumber,Transmittence
616.00,0.873920
601.00,0.875960
591.00,0.876140
631.00,0.870740
571.00,0.873820
626.00,0.871840
646.00,0.864660
656.00,0.858800
606.00,0.875300
611.00,0.874600
561.00,0.870720
621.00,0.872960
636.00,0.869540
661.00,0.854620
581.00,0.875540
556.00,0.868880
596.00,0.876260
641.00,0.867260
586.00,0.875980
566.00,0.872500
651.00,0.861960
576.00,0.874900
