# Wavenumber	Transmittence
1351.00	0.831080
1356.00	0.832000
1346.00	0.829080
1331.00	0.830300
1336.00	0.829600
1341.00	0.828900
1276.00	0.839120
1316.00	0.831900
1271.00	0.839580
1306.00	0.833740
1371.00	0.807380
1326.00	0.830860
1376.00	0.792380
1281.00	0.838640
1296.00	0.836400
1291.00	0.837660
1361.00	0.829300
1321.00	0.831400
1301.00	0.834980
1366.00	0.820360
1286.00	0.838200
1311.00	0.832580
