# Wavenumber	Transmittence
1131.00	0.850720
1046.00	0.807360
1071.00	0.783100
1056.00	0.806180
1041.00	0.799360
1166.00	0.842760
1121.00	0.846540
1126.00	0.850120
1101.00	0.826000
1156.00	0.844580
1091.00	0.801720
1096.00	0.814540
1141.00	0.848780
1036.00	0.794580
1106.00	0.831880
1076.00	0.782080
1086.00	0.794340
1136.00	0.849900
1066.00	0.792680
1051.00	0.811160
1081.00	0.794380
1116.00	0.838400
1151.00	0.845900
1146.00	0.847400
1111.00	0.832020
1061.00	0.800740
1161.00	0.843880
