# Wavenumber	Transmittence
1756.00	0.831040
1781.00	0.816860
1751.00	0.831840
1706.00	0.831480
1791.00	0.809540
1786.00	0.813120
1736.00	0.824060
1701.00	0.832100
1711.00	0.829960
1746.00	0.831500
1771.00	0.824000
1716.00	0.828200
1741.00	0.826020
1696.00	0.832460
1761.00	0.828860
1766.00	0.826480
1726.00	0.825040
1731.00	0.824200
1776.00	0.820540
1691.00	0.831180
1721.00	0.826340
