# Wavenumber Transmittence
2496.00 0.858460
2401.00 0.855720
2406.00 0.855980
2451.00 0.857520
2386.00 0.857120
2431.00 0.856580
2446.00 0.857320
2391.00 0.856100
2471.00 0.857580
2436.00 0.856880
2501.00 0.858820
2426.00 0.856280
2416.00 0.856200
2396.00 0.855520
2411.00 0.856180
2476.00 0.857500
2456.00 0.857760
2381.00 0.858320
2376.00 0.861100
2491.00 0.858120
2481.00 0.857620
2441.00 0.857120
2461.00 0.857800
2421.00 0.856200
2371.00 0.865300
2466.00 0.857720
2486.00 0.857880
