# Wavenumber,Transmittence
2806.00,0.859720
2746.00,0.849680
2751.00,0.851480
2756.00,0.854760
2736.00,0.850520
2821.00,0.854140
2731.00,0.852120
2776.00,0.864300
2761.00,0.858680
2811.00,0.857840
2781.00,0.863780
2771.00,0.863740
2741.00,0.849640
2826.00,0.852380
2766.00,0.861720
2801.00,0.861400
2796.00,0.862420
2791.00,0.863020
2786.00,0.863280
2816.00,0.855980
