# Wavenumber	Transmittence
796.00	0.839020
866.00	0.844980
801.00	0.839520
871.00	0.845080
891.00	0.838120
831.00	0.832100
836.00	0.835140
841.00	0.838840
906.00	0.845000
791.00	0.841320
821.00	0.838200
896.00	0.841280
781.00	0.839680
876.00	0.845640
816.00	0.836420
856.00	0.843380
886.00	0.839760
901.00	0.844540
861.00	0.844300
881.00	0.843140
776.00	0.841260
806.00	0.841500
786.00	0.844800
826.00	0.835960
846.00	0.841200
771.00	0.840960
911.00	0.844860
851.00	0.842460
811.00	0.841200
