# Wavenumber,Transmittence
746.00,0.616260
761.00,0.831380
731.00,0.215180
736.00,0.495900
756.00,0.805600
706.00,0.634040
711.00,0.600100
716.00,0.544160
796.00,0.839020
811.00,0.841200
786.00,0.844800
766.00,0.839160
816.00,0.836420
751.00,0.720140
821.00,0.838200
801.00,0.839520
741.00,0.525400
781.00,0.839680
721.00,0.504080
826.00,0.835960
771.00,0.840960
776.00,0.841260
791.00,0.841320
726.00,0.297800
806.00,0.841500
